References :   S.Green;  Ap. J.201366--372
Rotational excitation of N$_2$H$^+$ by He (Green, 1975)
>
Number of temperature columns = 5

       I1       J1       Temperature (K)    

                               5                  10                  20                  30                  40

       2       1        1.043500e-10        9.454000e-11        8.660000e-11        8.329000e-11        8.211000e-11
       3       1        5.100000e-11        5.144000e-11        4.657000e-11        4.200000e-11        3.835000e-11
       3       2        1.852700e-10        1.762600e-10        1.624000e-10        1.528200e-10        1.462000e-10
       4       1        2.667000e-11        2.946000e-11        2.835000e-11        2.662000e-11        2.525000e-11
       4       2        7.542000e-11        8.148000e-11        7.721000e-11        7.258000e-11        6.898000e-11
       4       3        1.390100e-10        1.550900e-10        1.551500e-10        1.537800e-10        1.530800e-10
       5       1        1.651000e-11        1.906000e-11        1.989000e-11        1.968000e-11        1.924000e-11
       5       2        3.527000e-11        4.513000e-11        5.044000e-11        5.184000e-11        5.227000e-11
       5       3        1.056100e-10        1.117500e-10        1.034800e-10        9.617000e-11        9.082000e-11
       5       4        1.562300e-10        1.687600e-10        1.661200e-10        1.625100e-10        1.604100e-10
       6       1        6.770000e-12        9.960000e-12        1.162000e-11        1.203000e-11        1.219000e-11
       6       2        2.946000e-11        3.961000e-11        4.258000e-11        4.209000e-11        4.130000e-11
       6       3        4.800000e-11        6.564000e-11        7.070000e-11        6.988000e-11        6.869000e-11
       6       4        6.362000e-11        8.509000e-11        8.886000e-11        8.610000e-11        8.347000e-11
       6       5        8.101000e-11        1.138200e-10        1.277600e-10        1.315900e-10        1.347800e-10
       7       1        9.980000e-12        1.059000e-11        9.580000e-12        8.880000e-12        8.420000e-12
       7       2        3.363000e-11        3.583000e-11        3.320000e-11        3.126000e-11        2.976000e-11
       7       3        6.348000e-11        6.889000e-11        6.400000e-11        5.976000e-11        5.639000e-11
       7       4        6.454000e-11        7.431000e-11        7.287000e-11        7.026000e-11        6.806000e-11
       7       5        8.656000e-11        9.713000e-11        9.294000e-11        8.872000e-11        8.568000e-11
       7       6        1.054400e-10        1.169000e-10        1.149400e-10        1.157700e-10        1.187200e-10
